Raman shift [1/cm],Intensity
1899.61,14.982459
1898.139,16.454247
1896.668,15.135531
1895.197,15.612789
1893.726,13.601376
1892.254,14.509964
1890.783,16.161085
1889.312,19.075998
1887.841,20.078895
1886.37,21.420921
1884.899,21.889237
1883.428,23.494043
1881.957,22.996015
1880.486,23.722326
1879.015,23.920635
1877.543,23.129184
1876.072,20.110329
1874.601,21.76359
1873.13,20.016569
1871.659,22.570301
1870.188,26.75241
1868.717,29.818534
1867.246,32.399476
1865.775,34.822473
1864.304,36.116853
1862.832,38.087508
1861.361,38.775826
1859.89,38.646025
1858.419,37.320687
1856.948,37.006212
1855.477,37.69199
1854.006,38.7844
1852.535,37.653921
1851.064,37.761063
1849.593,38.107746
1848.121,38.013842
1846.65,39.486091
1845.179,38.440896
1843.708,38.476121
1842.237,39.975586
1840.766,40.300965
1839.295,37.986689
1837.824,37.274205
1836.353,39.076147
1834.882,40.066572
1833.41,40.480981
1831.939,39.948106
1830.468,37.50682
1828.997,36.069474
1827.526,37.492114
1826.055,36.873542
1824.584,35.345812
1823.113,33.997881
1821.642,35.446639
1820.171,34.134611
1818.699,34.791178
1817.228,36.384379
1815.757,38.365659
1814.286,39.874674
1812.815,40.703928
1811.344,39.763905
1809.873,39.925096
1808.402,41.035596
1806.931,43.300856
1805.46,43.651898
1803.988,42.63103
1802.517,41.848084
1801.046,43.975519
1799.575,44.217296
1798.104,46.136872
1796.633,44.434895
1795.162,42.79572
1793.691,41.692822
1792.22,41.292474
1790.749,40.479807
1789.277,39.421295
1787.806,39.218263
1786.335,39.129191
1784.864,40.287518
1783.393,40.193606
1781.922,41.09571
1780.451,41.847243
1778.98,44.327542
1777.509,46.066913
1776.038,45.181373
1774.566,44.211335
1773.095,45.926926
1771.624,45.405594
1770.153,46.315429
1768.682,45.947667
1767.211,48.184437
1765.74,48.457135
1764.269,48.78547
1762.798,47.596217
1761.327,47.746876
1759.855,50.191502
1758.384,54.196138
1756.913,55.144341
1755.442,56.512513
1753.971,59.400637
1752.5,65.110284
1751.029,69.198772
1749.558,76.992734
1748.087,85.657186
1746.616,95.577335
1745.144,105.91719
1743.673,117.87508
1742.202,130.76835
1740.731,145.92724
1739.26,163.32121
1737.789,182.46156
1736.318,204.60434
1734.847,234.04229
1733.376,266.08394
1731.905,297.3972
1730.433,324.00945
1728.962,342.52827
1727.491,352.75037
1726.02,350.63764
1724.549,339.65485
1723.078,318.71963
1721.607,285.69626
1720.136,247.26964
1718.665,209.49772
1717.194,175.3596
1715.722,146.73418
1714.251,125.8306
1712.78,109.24755
1711.309,96.536826
1709.838,86.825393
1708.367,79.12597
1706.896,73.126948
1705.425,67.473602
1703.954,62.095656
1702.483,55.952888
1701.011,49.274701
1699.54,47.339069
1698.069,47.040843
1696.598,46.833704
1695.127,46.245641
1693.656,45.392548
1692.185,42.895476
1690.714,42.270119
1689.243,43.597582
1687.772,44.132466
1686.3,43.718185
1684.829,42.575589
1683.358,41.387479
1681.887,42.640456
1680.416,45.460395
1678.945,49.415675
1677.474,52.088068
1676.003,54.832626
1674.532,56.600198
1673.061,56.833269
1671.589,55.982011
1670.118,57.563131
1668.647,56.943502
1667.176,53.793623
1665.705,50.982578
1664.234,47.40546
1662.763,45.999489
1661.292,45.047521
1659.821,43.710222
1658.35,43.501536
1656.878,42.440508
1655.407,43.529551
1653.936,44.268647
1652.465,44.352605
1650.994,44.658566
1649.523,46.451429
1648.052,47.446108
1646.581,48.620243
1645.11,51.133131
1643.639,53.69679
1642.167,56.231374
1640.696,58.562206
1639.225,61.818754
1637.754,64.879232
1636.283,68.197914
1634.812,73.987426
1633.341,78.206872
1631.87,81.376645
1630.399,85.654019
1628.928,95.609787
1627.456,114.58745
1625.985,147.69983
1624.514,197.94968
1623.043,268.90014
1621.572,352.44377
1620.101,444.06102
1618.63,529.67242
1617.159,598.18078
1615.688,645.21255
1614.217,665.39616
1612.745,653.96317
1611.274,612.93446
1609.803,547.77508
1608.332,467.20965
1606.861,381.89847
1605.39,301.31331
1603.919,232.49194
1602.448,182.04129
1600.977,145.13701
1599.506,121.92642
1598.034,104.79589
1596.563,90.870402
1595.092,82.599327
1593.621,76.729918
1592.15,71.215312
1590.679,67.48176
1589.208,66.100839
1587.737,64.851121
1586.266,64.490721
1584.795,64.449869
1583.323,65.290901
1581.852,65.335438
1580.381,63.634835
1578.91,63.209246
1577.439,63.224552
1575.968,62.011053
1574.497,60.928711
1573.026,60.29668
1571.555,60.693532
1570.084,61.456316
1568.612,61.441177
1567.141,61.766593
1565.67,62.407439
1564.199,62.274277
1562.728,61.188248
1561.257,60.812943
1559.786,57.922577
1558.315,55.763546
1556.844,54.251721
1555.373,54.299509
1553.901,56.176653
1552.43,58.572127
1550.959,60.361497
1549.488,61.583586
1548.017,62.840646
1546.546,63.697745
1545.075,64.547312
1543.604,65.457527
1542.133,66.348591
1540.662,65.397256
1539.19,62.650113
1537.719,62.01012
1536.248,61.309339
1534.777,61.953324
1533.306,63.540169
1531.835,62.610083
1530.364,61.33809
1528.893,61.08
1527.422,61.777683
1525.951,63.859778
1524.479,67.324304
1523.008,71.094086
1521.537,72.977328
1520.066,71.941269
1518.595,72.142309
1517.124,73.822633
1515.653,74.544384
1514.182,76.392709
1512.711,78.42844
1511.24,78.819253
1509.768,79.917284
1508.297,81.99755
1506.826,85.168385
1505.355,88.630935
1503.884,90.265895
1502.413,91.406113
1500.942,92.213748
1499.471,91.034894
1498,89.159939
1496.529,88.417631
1495.057,87.253417
1493.586,87.57219
1492.115,86.923455
1490.644,85.987687
1489.173,87.112195
1487.702,90.750779
1486.231,94.018141
1484.76,95.217205
1483.289,93.174088
1481.818,95.34292
1480.346,96.18241
1478.875,97.74176
1477.404,98.467623
1475.933,98.027753
1474.462,100.39255
1472.991,104.22794
1471.52,107.43356
1470.049,114.05729
1468.578,127.10945
1467.107,131.30881
1465.635,132.85045
1464.164,129.80448
1462.693,125.69538
1461.222,124.59341
1459.751,120.32561
1458.28,117.76027
1456.809,114.96187
1455.338,112.00601
1453.867,110.76699
1452.396,111.69464
1450.924,114.74214
1449.453,120.28076
1447.982,126.36347
1446.511,122.60628
1445.04,122.15932
1443.569,120.96251
1442.098,122.46038
1440.627,124.29815
1439.156,123.90414
1437.685,124.93505
1436.213,125.47121
1434.742,125.34267
1433.271,123.83647
1431.8,125.08191
1430.329,127.33814
1428.858,129.29082
1427.387,133.394
1425.916,136.24845
1424.445,139.72767
1422.974,145.27638
1421.502,154.81225
1420.031,164.1236
1418.56,171.50344
1417.089,177.31567
1415.618,179.84849
1414.147,180.44139
1412.676,176.51661
1411.205,171.52861
1409.734,163.69481
1408.263,157.17217
1406.791,148.32329
1405.32,136.92842
1403.849,127.81758
1402.378,121.70476
1400.907,118.89904
1399.436,117.48499
1397.965,116.95684
1396.494,114.71951
1395.023,117.60411
1393.552,120.5749
1392.08,120.26676
1390.609,120.12053
1389.138,121.06372
1387.667,124.53242
1386.196,124.86339
1384.725,123.74695
1383.254,125.51261
1381.783,127.76577
1380.312,130.92361
1378.841,134.18168
1377.369,136.3921
1375.898,138.27977
1374.427,142.62494
1372.956,142.33658
1371.485,142.51083
1370.014,141.70366
1368.543,141.58545
1367.072,140.6203
1365.601,137.27982
1364.13,133.85305
1362.658,134.13203
1361.187,133.17326
1359.716,134.49139
1358.245,133.44584
1356.774,131.73778
1355.303,133.00686
1353.832,135.21324
1352.361,136.95099
1350.89,142.58806
1349.419,144.78674
1347.947,144.818
1346.476,145.77935
1345.005,144.82891
1343.534,142.4621
1342.063,140.25764
1340.592,136.62279
1339.121,133.02572
1337.65,127.88571
1336.179,125.68094
1334.708,125.24219
1333.236,125.89754
1331.765,127.00565
1330.294,129.0754
1328.823,132.01982
1327.352,136.80628
1325.881,143.35954
1324.41,150.27181
1322.939,157.13459
1321.468,164.20511
1319.997,171.1115
1318.525,177.64051
1317.054,186.56798
1315.583,195.35763
1314.112,202.82626
1312.641,211.22697
1311.17,219.85077
1309.699,228.0443
1308.228,235.68844
1306.757,246.01343
1305.286,258.21077
1303.814,276.77545
1302.343,301.30118
1300.872,331.51165
1299.401,366.07504
1297.93,403.14818
1296.459,440.40056
1294.988,473.80728
1293.517,501.4239
1292.046,521.69543
1290.575,533.61045
1289.103,535.3952
1287.632,527.11828
1286.161,515.35201
1284.69,499.48287
1283.219,478.94751
1281.748,453.96152
1280.277,425.65856
1278.806,396.17074
1277.335,362.5886
1275.864,328.99795
1274.392,295.2947
1272.921,261.87425
1271.45,231.58133
1269.979,205.70551
1268.508,184.45562
1267.037,166.50326
1265.566,155.52993
1264.095,148.11215
1262.624,139.85279
1261.153,130.99024
1259.681,123.8886
1258.21,116.9967
1256.739,113.11882
1255.268,109.20733
1253.797,104.52606
1252.326,100.91657
1250.855,98.438202
1249.384,95.690547
1247.913,93.049006
1246.442,89.088251
1244.97,89.920771
1243.499,92.924873
1242.028,94.141839
1240.557,94.833372
1239.086,95.484815
1237.615,97.635009
1236.144,98.653814
1234.673,91.152837
1233.202,83.122358
1231.731,73.51375
1230.259,68.669049
1228.788,64.432215
1227.317,62.830182
1225.846,62.799907
1224.375,65.476168
1222.904,70.230787
1221.433,73.274323
1219.962,79.329124
1218.491,84.158869
1217.02,88.291041
1215.548,91.549752
1214.077,91.480051
1212.606,92.604117
1211.135,92.095977
1209.664,97.341796
1208.193,102.00678
1206.722,104.80827
1205.251,106.54029
1203.78,109.12255
1202.309,112.79054
1200.837,115.72637
1199.366,121.57276
1197.895,128.62685
1196.424,141.78613
1194.953,159.95087
1193.482,172.74973
1192.011,184.70243
1190.54,196.36346
1189.069,207.35147
1187.598,214.62859
1186.126,215.95457
1184.655,214.90964
1183.184,211.7156
1181.713,204.10647
1180.242,196.25107
1178.771,186.43908
1177.3,176.34778
1175.829,166.63041
1174.358,155.62561
1172.887,145.00169
1171.415,135.85664
1169.944,128.7666
1168.473,122.76484
1167.002,118.24054
1165.531,113.21018
1164.06,111.78055
1162.589,108.63082
1161.118,106.83936
1159.647,108.77873
1158.176,109.34818
1156.704,108.79749
1155.233,111.26012
1153.762,114.3792
1152.291,118.68197
1150.82,121.14036
1149.349,121.03832
1147.878,121.35855
1146.407,124.78096
1144.936,127.92071
1143.465,130.72014
1141.993,130.24342
1140.522,130.74358
1139.051,134.46571
1137.58,138.49262
1136.109,142.61945
1134.638,151.30635
1133.167,159.30367
1131.696,167.75095
1130.225,174.96025
1128.754,181.7161
1127.282,194.58471
1125.811,213.36778
1124.34,233.163
1122.869,250.60947
1121.398,265.41968
1119.927,276.58713
1118.456,287.50828
1116.985,292.4781
1115.514,292.25619
1114.043,288.45801
1112.571,280.58443
1111.1,270.69797
1109.629,260.8815
1108.158,256.15442
1106.687,261.43229
1105.216,277.01514
1103.745,300.55508
1102.274,328.86743
1100.803,359.37874
1099.332,390.87651
1097.86,420.64505
1096.389,437.06084
1094.918,440.5371
1093.447,429.12409
1091.976,403.42888
1090.505,367.66454
1089.034,329.23838
1087.563,286.08315
1086.092,247.8281
1084.621,210.63549
1083.149,179.00291
1081.678,152.89752
1080.207,132.0702
1078.736,119.41968
1077.265,113.74371
1075.794,106.33699
1074.323,101.61843
1072.852,95.884213
1071.381,90.971074
1069.91,90.05367
1068.438,93.47618
1066.967,92.463771
1065.496,88.381507
1064.025,83.422483
1062.554,80.678996
1061.083,77.172695
1059.612,71.047367
1058.141,67.097798
1056.67,65.482961
1055.199,61.851653
1053.727,60.652515
1052.256,58.287973
1050.785,56.087526
1049.314,54.693421
1047.843,54.611051
1046.372,51.041235
1044.901,48.02193
1043.43,48.262972
1041.959,51.673171
1040.488,51.483724
1039.016,48.923038
1037.545,47.201895
1036.074,45.212094
1034.603,43.169832
1033.132,41.469911
1031.661,38.432621
1030.19,35.803254
1028.719,35.682971
1027.248,34.271744
1025.777,30.891831
1024.305,28.525142
1022.834,27.442494
1021.363,27.676361
1019.892,27.611132
1018.421,29.273608
1016.95,31.812763
1015.479,38.176267
1014.008,45.153187
1012.537,53.738466
1011.066,64.266136
1009.594,76.122803
1008.123,89.1234
1006.652,99.448354
1005.181,110.98169
1003.71,122.90479
1002.239,133.26654
1000.768,144.59211
999.297,151.45846
997.826,152.52316
996.355,151.73515
994.883,146.06756
993.412,135.42367
991.941,124.26196
990.47,111.25577
988.999,96.606399
987.528,81.704469
986.057,68.785835
984.586,60.278013
983.115,54.537078
981.644,49.183887
980.172,47.105517
978.701,44.58339
977.23,42.823854
975.759,41.358909
974.288,39.750696
972.817,40.783574
971.346,41.062266
969.875,42.177254
968.404,40.467995
966.933,37.606546
965.461,37.053772
963.99,36.165408
962.519,33.271778
961.048,31.44899
959.577,32.817109
958.106,31.181368
956.635,31.437517
955.164,32.212094
953.693,34.529915
952.222,37.867198
950.75,35.726578
949.279,35.86351
947.808,37.174037
946.337,41.680709
944.866,45.830852
943.395,48.460246
941.924,52.253033
940.453,60.441028
938.982,67.114243
937.511,70.885841
936.039,77.825709
934.568,83.244801
933.097,85.538813
931.626,85.502592
930.155,81.014302
928.684,80.886211
927.213,83.70831
925.742,86.964892
924.271,88.4306
922.8,89.613355
921.328,92.975836
919.857,97.553766
918.386,100.91204
916.915,105.38202
915.444,109.17995
913.973,110.45586
912.502,108.69851
911.031,107.20833
909.56,106.95699
908.089,106.99273
906.617,108.8349
905.146,113.04442
903.675,115.27321
902.204,117.20596
900.733,120.67789
899.262,124.78883
897.791,131.08599
896.32,136.08831
894.849,138.64617
893.378,140.19584
891.906,140.2413
890.435,141.64587
888.964,144.57894
887.493,147.18513
886.022,151.1516
884.551,154.6033
883.08,155.29465
881.609,157.1302
880.138,154.05465
878.667,154.83017
877.195,158.52822
875.724,161.80369
874.253,166.30126
872.782,178.7557
871.311,203.3135
869.84,247.1718
868.369,310.63251
866.898,386.58736
865.427,470.24636
863.956,555.98592
862.484,630.54185
861.013,686.87958
859.542,715.69463
858.071,721.93685
856.6,697.96363
855.129,645.34449
853.658,570.7007
852.187,489.02038
850.716,406.57178
849.245,330.19647
847.773,265.04472
846.302,210.35499
844.831,169.92789
843.36,143.49038
841.889,120.30622
840.418,102.76638
838.947,90.810268
837.476,84.372212
836.005,80.917543
834.534,77.984326
833.062,75.298779
831.591,74.532369
830.12,75.963718
828.649,76.972668
827.178,76.931834
825.707,76.576759
824.236,77.41994
822.765,77.662639
821.294,74.771431
819.823,69.0428
818.351,65.783116
816.88,64.242091
815.409,61.137373
813.938,55.794525
812.467,50.27273
810.996,46.36998
809.525,45.384541
808.054,45.115691
806.583,45.437459
805.112,46.908093
803.64,53.336976
802.169,60.914804
800.698,67.006383
799.227,71.785227
797.756,78.449406
796.285,83.672386
794.814,85.824511
793.343,84.547159
791.872,81.444817
790.401,76.330588
788.929,69.416556
787.458,62.483261
785.987,53.476852
784.516,44.897537
783.045,41.901054
781.574,38.251989
780.103,35.105526
778.632,33.119309
777.161,33.384258
775.69,33.783912
774.218,33.600588
772.747,33.091921
771.276,34.114038
769.805,34.850214
768.334,34.259668
766.863,34.190795
765.392,33.718873
763.921,33.839326
762.45,35.286722
760.979,36.543437
759.507,37.816771
758.036,39.680252
756.565,43.347372
755.094,44.501609
753.623,43.661976
752.152,42.787896
750.681,41.218199
749.21,39.044654
747.739,36.877881
746.268,35.109093
744.796,30.28047
743.325,24.797525
741.854,22.03177
740.383,20.985158
738.912,20.981612
737.441,21.656491
735.97,19.949944
734.499,18.581874
733.028,19.869399
731.557,22.971049
730.085,26.814952
728.614,30.892264
727.143,32.350864
725.672,29.890834
724.201,26.995321
722.73,25.490797
721.259,25.063747
719.788,24.885082
718.317,24.953555
716.846,23.49726
715.374,24.996195
713.903,31.965393
712.432,41.272783
710.961,60.830615
709.49,83.317516
708.019,103.10134
706.548,120.66576
705.077,131.10787
703.606,134.59521
702.135,131.05524
700.663,124.67203
699.192,112.89048
697.721,96.801694
696.25,77.925388
694.779,67.929865
693.308,56.001881
691.837,45.798738
690.366,45.107183
688.895,43.843871
687.424,41.928331
685.952,40.371514
684.481,35.425582
683.01,32.094055
681.539,32.638664
680.068,35.479729
678.597,33.883456
677.126,34.133807
675.655,39.967111
674.184,44.367986
672.713,44.378278
671.241,41.488518
669.77,39.33318
668.299,38.059313
666.828,37.320511
665.357,37.943989
663.886,42.822584
662.415,50.673031
660.944,60.579127
659.473,66.420535
658.002,72.142812
656.53,77.606631
655.059,81.292818
653.588,82.098044
652.117,76.323062
650.646,70.017864
649.175,66.409726
647.704,62.744782
646.233,61.5688
644.762,67.943695
643.291,85.530164
641.819,115.17142
640.348,156.35866
638.877,207.46821
637.406,253.56991
635.935,311.60055
634.464,346.27496
632.993,363.40141
631.522,362.91959
630.051,342.91445
628.58,316.12341
627.108,271.29556
625.637,217.83704
624.166,169.8415
622.695,125.66281
621.224,98.384836
619.753,84.570262
618.282,78.44774
616.811,75.224635
615.34,76.181244
613.869,76.660623
612.397,79.045496
610.926,81.553418
609.455,81.916193
607.984,80.995313
606.513,75.358062
605.042,70.317566
603.571,68.94797
602.1,68.68536
600.629,64.726972
599.158,61.216606
597.686,60.329104
596.215,60.486929
594.744,63.962155
593.273,70.141632
591.802,73.114663
590.331,75.813222
588.86,77.224187
587.389,77.742223
585.918,77.327982
584.447,78.570073
582.975,79.426988
581.504,78.403455
580.033,72.307655
578.562,71.408193
577.091,74.504062
575.62,75.769229
574.149,76.344259
572.678,77.0348
571.207,74.191564
569.736,72.13177
568.264,71.395756
566.793,71.334952
565.322,71.782667
563.851,72.809778
562.38,74.274316
560.909,74.763868
559.438,75.787403
557.967,78.513417
556.496,80.470254
555.025,77.37594
553.553,81.689627
552.082,81.983728
550.611,79.742631
549.14,75.946705
547.669,72.826675
546.198,72.090891
544.727,75.709435
543.256,76.337325
541.785,78.52815
540.314,79.626749
538.842,83.248126
537.371,85.681892
535.9,85.89059
534.429,86.261805
532.958,86.539
531.487,82.527788
530.016,79.398113
528.545,76.602823
527.074,79.322498
525.603,76.398815
524.131,85.977964
522.66,73.830861
521.189,84.526691
519.718,79.214826
518.247,94.930559
516.776,98.146626
515.305,96.059154
513.834,92.062632
512.363,94.261734
510.892,92.368794
509.42,91.327318
507.949,88.781825
506.478,88.943193
505.007,91.050784
503.536,93.960789
502.065,96.607957
500.594,99.809072
499.123,99.427675
497.652,105.05107
496.181,108.62382
494.709,109.97178
493.238,109.83249
491.767,109.14121
490.296,107.72485
488.825,105.50544
487.354,102.47034
485.883,98.710417
484.412,94.935031
482.941,91.903041
481.47,88.527745
479.998,86.944834
478.527,88.736881
477.056,89.269471
475.585,89.481598
474.114,86.643322
472.643,93.051874
471.172,73.088543
469.701,74.310728
468.23,58.3202
466.759,82.153581
465.287,74.38979
463.816,66.907644
462.345,76.617544
460.874,80.998193
459.403,69.510834
457.932,71.128971
456.461,78.002707
454.99,79.095838
453.519,69.724348
452.048,83.781111
450.576,64.114126
449.105,68.176273
447.634,69.048288
446.163,68.987718
444.692,72.219958
443.221,74.578629
441.75,77.412805
440.279,77.587282
438.808,80.260603
437.337,82.684189
435.865,80.217256
434.394,81.563142
432.923,82.113721
431.452,83.913158
429.981,85.72701
428.51,86.513405
427.039,89.680553
425.568,88.125182
424.097,86.618707
422.626,88.814429
421.154,88.730003
419.683,90.065869
418.212,93.887564
416.741,95.868593
415.27,96.310104
413.799,101.39535
412.328,108.61427
410.857,113.14496
409.386,117.1826
407.915,120.04342
406.443,123.188
404.972,125.16315
403.501,125.90966
402.03,126.54546
400.559,126.86021
